# wavelength transmission
0.462 0.0
0.463 0.0002
0.464 0.0004
0.465 0.0006
0.466 0.0009
0.467 0.0015
0.468 0.0024
0.469 0.0038
0.470 0.0062
0.471 0.0096
0.472 0.0146
0.473 0.0217
0.474 0.0316
0.475 0.0447
0.476 0.0615
0.477 0.0825
0.478 0.1077
0.479 0.1375
0.480 0.1717
0.481 0.2093
0.482 0.2494
0.483 0.2909
0.484 0.3333
0.485 0.376
0.486 0.4182
0.487 0.4588
0.488 0.4983
0.489 0.5361
0.490 0.5712
0.491 0.6036
0.492 0.6335
0.493 0.6608
0.494 0.6855
0.495 0.7081
0.496 0.7285
0.497 0.7466
0.498 0.7634
0.499 0.7788
0.500 0.7925
0.501 0.8044
0.502 0.8154
0.503 0.825
0.504 0.8338
0.505 0.8417
0.506 0.8487
0.507 0.8549
0.508 0.8608
0.509 0.866
0.510 0.8705
0.511 0.8746
0.512 0.8782
0.513 0.8812
0.514 0.8838
0.515 0.8861
0.516 0.8883
0.517 0.8903
0.518 0.8919
0.519 0.8932
0.520 0.8945
0.521 0.8951
0.522 0.8958
0.523 0.8962
0.524 0.8967
0.525 0.8965
0.526 0.8964
0.527 0.8964
0.528 0.896
0.529 0.8956
0.530 0.895
0.531 0.8942
0.532 0.8931
0.533 0.8919
0.534 0.8908
0.535 0.8894
0.536 0.8881
0.537 0.8862
0.538 0.8846
0.539 0.8827
0.540 0.8804
0.541 0.878
0.542 0.8757
0.543 0.8731
0.544 0.8701
0.545 0.8673
0.546 0.8642
0.547 0.8612
0.548 0.8578
0.549 0.8543
0.550 0.8506
0.551 0.8469
0.552 0.8428
0.553 0.8389
0.554 0.8346
0.555 0.8299
0.556 0.8252
0.557 0.8204
0.558 0.8154
0.559 0.8102
0.560 0.8045
0.561 0.7989
0.562 0.7935
0.563 0.7872
0.564 0.781
0.565 0.7749
0.566 0.7686
0.567 0.7619
0.568 0.7552
0.569 0.7481
0.570 0.7406
0.571 0.7332
0.572 0.7257
0.573 0.7178
0.574 0.7101
0.575 0.7022
0.576 0.6939
0.577 0.6857
0.578 0.6772
0.579 0.6685
0.580 0.6594
0.581 0.6503
0.582 0.6411
0.583 0.6318
0.584 0.6226
0.585 0.613
0.586 0.6034
0.587 0.5937
0.588 0.584
0.589 0.5739
0.590 0.5638
0.591 0.5535
0.592 0.5434
0.593 0.5331
0.594 0.5227
0.595 0.5123
0.596 0.502
0.597 0.4914
0.598 0.4811
0.599 0.4703
0.600 0.4598
0.601 0.4491
0.602 0.4385
0.603 0.4279
0.604 0.4176
0.605 0.4072
0.606 0.3968
0.607 0.3862
0.608 0.3759
0.609 0.3657
0.610 0.3553
0.611 0.3452
0.612 0.3351
0.613 0.3251
0.614 0.3153
0.615 0.3057
0.616 0.2962
0.617 0.2867
0.618 0.2773
0.619 0.268
0.620 0.2586
0.621 0.2498
0.622 0.2409
0.623 0.2322
0.624 0.2238
0.625 0.2156
0.626 0.2075
0.627 0.1996
0.628 0.1918
0.629 0.1841
0.630 0.1766
0.631 0.1693
0.632 0.1621
0.633 0.1553
0.634 0.1486
0.635 0.1421
0.636 0.1358
0.637 0.1297
0.638 0.1238
0.639 0.1179
0.640 0.1122
0.641 0.1068
0.642 0.1016
0.643 0.0966
0.644 0.0918
0.645 0.0871
0.646 0.0827
0.647 0.0784
0.648 0.0742
0.649 0.0702
0.650 0.0664
0.651 0.0627
0.652 0.0591
0.653 0.0558
0.654 0.0526
0.655 0.0496
0.656 0.0467
0.657 0.0439
0.658 0.0413
0.659 0.0387
0.660 0.0363
0.661 0.034
0.662 0.0319
0.663 0.0298
0.664 0.0279
0.665 0.0261
0.666 0.0244
0.667 0.0228
0.668 0.0212
0.669 0.0198
0.670 0.0184
0.671 0.0171
0.672 0.0159
0.673 0.0148
0.674 0.0137
0.675 0.0127
0.676 0.0118
0.677 0.011
0.678 0.0101
0.679 0.0094
0.680 0.0087
0.681 0.008
0.682 0.0074
0.683 0.0068
0.684 0.0063
0.685 0.0058
0.686 0.0053
0.687 0.0049
0.688 0.0045
0.689 0.0041
0.690 0.0038
0.691 0.0035
0.692 0.0032
0.693 0.0029
0.694 0.0027
0.695 0.0025
0.696 0.0023
0.697 0.0021
0.698 0.0019
0.699 0.0017
0.700 0.0016
0.701 0.0014
0.702 0.0013
0.703 0.0012
0.704 0.0011
0.705 0.0
